Sine Test Results
Object:
DAMPER
Task File:
C:\VIBRO\SINE_T\TASK\DX_6G.ST

Spertrum - g, ampl - g, phase - rad

  210 - point number
1 Hz - frequency band
  n   Fr[Hz]   1ch Sin    2ch Sin    4ch Sin 
    1   156    6.05887    8.43851    8.44923
    2   157    5.98347    8.39002    8.38237
    3   158    6.00839    8.48056    8.47114
    4   159    5.98026    8.49779    8.48699
    5   160    5.99770    8.55132    8.53742
    6   161    6.00881    8.63167    8.61366
    7   162    5.99239    8.67231    8.65136
    8   163    6.00345    8.72578    8.70088
    9   164    6.03330    8.83828    8.81163
   10   165    6.07117    8.94694    8.91471
   11   166    6.00684    8.90873    8.87341
   12   167    5.99860    8.95620    8.92356
   13   168    6.01524    9.04757    9.01113
   14   169    6.03191    9.10469    9.07020
   15   170    6.01322    9.14092    9.10248
   16   171    5.99266    9.17983    9.13987
   17   172    6.00976    9.28029    9.23735
   18   173    5.95339    9.26260    9.21682
   19   174    6.00241    9.38376    9.33697
   20   175    5.99413    9.45557    9.40682
   21   176    6.00405    9.56291    9.50513
   22   177    6.01060    9.60759    9.54578
   23   178    6.02974    9.71994    9.65899
   24   179    6.00151    9.77853    9.70660
   25   180    5.99689    9.85050    9.77424
   26   181    6.01537    9.93364    9.85067
   27   182    6.00065   10.00357    9.91509
   28   183    6.00697   10.12210   10.02461
   29   184    5.99416   10.20247   10.09839
   30   185    6.01927   10.29653   10.19084
   31   186    6.02340   10.40801   10.29036
   32   187    6.02084   10.51609   10.39266
   33   188    6.00758   10.62081   10.48355
   34   189    5.99874   10.66884   10.52952
   35   190    6.00612   10.79205   10.64950
   36   191    5.99843   10.91039   10.76040
   37   192    6.01784   11.08607   10.92462
   38   193    5.98789   11.15761   10.98829
   39   194    6.00541   11.26851   11.08848
   40   195    6.01300   11.41507   11.22265
   41   196    5.98498   11.51610   11.31462
   42   197    5.99860   11.70360   11.48844
   43   198    5.98065   11.83910   11.60461
   44   199    5.99720   11.96028   11.72095
   45   200    6.01868   12.18788   11.93331
   46   201    5.99167   12.31245   12.04642
   47   202    6.01407   12.46878   12.18643
   48   203    5.99788   12.75309   12.44487
   49   204    6.01227   12.88902   12.56618
   50   205    6.00122   13.08981   12.74311
   51   206    5.98338   13.27969   12.91467
   52   207    6.01218   13.45999   13.07188
   53   208    5.99945   13.69470   13.27807
   54   209    6.01334   13.98919   13.54259
   55   210    5.99814   14.24863   13.76659
   56   211    6.00657   14.57997   14.05772
   57   212    6.00076   14.86360   14.29897
   58   213    5.99050   15.03967   14.44774
   59   214    6.00499   15.48477   14.82370
   60   215    5.99907   15.81641   15.08858
   61   216    6.01023   16.30429   15.50107
   62   217    6.00736   16.80048   15.91913
   63   218    5.99676   17.33883   16.33593
   64   219    6.00518   17.77046   16.68196
   65   220    5.99028   18.34492   17.13898
   66   221    6.00022   19.01641   17.69986
   67   222    6.01598   19.77148   18.34967
   68   223    5.98339   20.47330   18.99119
   69   224    5.99435   21.25970   19.74219
   70   225    6.00639   22.12405   20.63494
   71   226    5.98544   22.23317   20.84376
   72   227    6.01664   23.08176   21.75962
   73   228    5.99957   23.91937   22.71074
   74   229    5.98990   24.83754   23.73000
   75   230    5.99257   25.89468   24.91806
   76   231    5.99101   27.02613   26.13732
   77   232    6.03301   27.36356   26.66141
   78   233    6.00012   28.27893   27.66887
   79   234    5.99052   29.17508   28.64252
   80   235    6.01431   29.94658   29.51305
   81   236    6.00420   30.69512   30.32999
   82   237    6.00141   31.25357   30.90937
   83   238    6.03868   30.89052   30.55449
   84   239    6.01364   31.07380   30.78374
   85   240    5.99753   31.14249   30.89901
   86   241    5.98773   31.21395   31.01101
   87   242    5.99216   31.24877   31.08222
   88   243    6.01323   31.18846   31.04600
   89   244    5.99710   31.04459   30.93618
   90   245    6.04828   30.69374   30.51144
   91   246    6.00405   30.29544   30.13048
   92   247    5.99302   30.06600   29.89432
   93   248    6.01731   29.85714   29.69391
   94   249    5.99678   29.37555   29.23302
   95   250    5.99290   29.07899   28.93588
   96   251    5.98923   28.82506   28.68715
   97   252    6.01358   28.34960   28.23610
   98   253    6.02189   28.35295   28.19231
   99   254    5.97898   27.39926   27.32078
  100   255    5.99640   27.45064   27.31260
  101   256    5.98904   26.98350   26.87531
  102   257    5.99429   26.63260   26.54954
  103   258    6.00321   26.22488   26.17396
  104   259    6.00797   26.31404   26.25526
  105   260    6.00009   25.35830   25.37996
  106   261    6.00783   25.47876   25.46808
  107   262    6.02831   25.16248   25.20506
  108   263    6.00588   24.68521   24.83039
  109   264    5.99599   24.20751   24.41712
  110   265    6.00423   24.19869   24.44821
  111   266    6.00388   23.39273   23.68588
  112   267    6.02215   23.40959   23.68656
  113   268    6.01383   23.05526   23.33466
  114   269    6.01416   22.36103   22.64644
  115   270    6.00477   22.34763   22.60965
  116   271    6.00275   21.94795   22.18817
  117   272    6.00418   21.98654   22.20554
  118   273    6.01231   21.67269   21.88615
  119   274    6.00139   21.29849   21.50218
  120   275    6.01393   20.96589   21.15721
  121   276    6.00676   21.02114   21.20214
  122   277    6.01497   20.67223   20.83830
  123   278    6.00931   20.34397   20.50673
  124   279    6.01640   20.04374   20.20023
  125   280    6.05076   19.77813   19.92483
  126   281    5.99553   19.74594   19.87886
  127   282    6.00634   19.46585   19.58781
  128   283    5.96288   19.50086   19.62361
  129   284    5.97540   19.20565   19.31259
  130   285    5.99326   18.94780   19.04911
  131   286    6.00086   18.65795   18.75496
  132   287    5.99603   18.34608   18.43785
  133   288    6.02322   18.12824   18.22053
  134   289    5.98202   18.17113   18.24026
  135   290    6.06137   17.65234   17.71098
  136   291    6.07661   17.45387   17.50247
  137   292    6.00004   17.40972   17.45943
  138   293    5.94148   17.37047   17.42729
  139   294    6.01744   16.92473   16.96729
  140   295    5.98763   16.95939   17.00072
  141   296    5.99906   16.73671   16.77940
  142   297    6.02278   16.54949   16.57655
  143   298    6.02505   16.31945   16.33920
  144   299    6.03317   16.09337   16.12032
  145   300    5.97089   16.08030   16.09442
  146   301    6.00714   15.91629   15.91533
  147   302    6.00617   15.70689   15.70016
  148   303    6.00916   15.50863   15.49592
  149   304    5.93117   15.45176   15.44517
  150   305    6.02547   15.14198   15.10905
  151   306    5.99867   15.15557   15.12242
  152   307    6.07696   14.81284   14.75971
  153   308    6.01035   14.78659   14.73937
  154   309    6.00031   14.58016   14.52627
  155   310    5.98849   14.37319   14.31037
  156   311    5.94150   14.36826   14.31240
  157   312    6.00814   14.30895   14.24584
  158   313    6.10514   14.05987   13.99793
  159   314    5.98931   13.90317   13.85333
  160   315    5.99875   13.73020   13.71665
  161   316    6.01917   13.58190   13.59718
  162   317    6.01440   13.40639   13.43732
  163   318    6.01148   13.46069   13.49430
  164   319    5.97789   13.19960   13.24094
  165   320    6.00206   13.13063   13.17612
  166   321    5.90654   12.95753   12.99130
  167   322    6.00920   12.83738   12.88140
  168   323    5.92185   12.73266   12.76629
  169   324    5.95346   12.63834   12.66384
  170   325    6.01989   12.59977   12.61993
  171   326    5.98403   12.39815   12.41733
  172   327    5.99477   12.29103   12.30839
  173   328    6.00242   12.18832   12.19890
  174   329    6.00772   12.05440   12.06634
  175   330    5.93435   11.95699   11.96525
  176   331    6.09760   11.92071   11.93297
  177   332    6.01133   11.85843   11.86165
  178   333    6.10634   11.76356   11.76399
  179   334    6.02200   11.63225   11.63138
  180   335    5.89377   11.44986   11.44346
  181   336    6.01061   11.40728   11.38099
  182   337    6.03310   11.35061   11.31807
  183   338    5.97515   11.25255   11.20186
  184   339    5.99025   11.18986   11.13177
  185   340    5.99475   11.08718   11.00927
  186   341    6.01640   11.03518   10.94279
  187   342    6.02427   10.94865   10.84882
  188   343    5.99986   10.83784   10.71799
  189   344    6.03779   10.77546   10.66092
  190   345    6.11017   10.78827   10.64570
  191   346    5.99068   10.57638   10.44758
  192   347    5.99397   10.51386   10.36868
  193   348    6.01955   10.47371   10.33267
  194   349    6.01385   10.37123   10.21998
  195   350    6.04140   10.32268   10.17260
  196   351    6.02145   10.23154   10.07508
  197   352    5.94735   10.06221    9.91954
  198   353    5.98131   10.04386    9.87710
  199   354    6.01823   10.00216    9.84001
  200   355    5.99648    9.88397    9.71817
  201   356    6.02763    9.84162    9.67842
  202   357    6.01110    9.77322    9.61088
  203   358    6.01908    9.70714    9.54772
  204   359    6.02075    9.62668    9.45343
  205   360    5.98976    9.51354    9.36287
  206   361    6.13627    9.63624    9.46346
  207   362    5.97695    9.35472    9.17749
  208   363    6.01919    9.34120    9.16530
  209   364    5.99056    9.24204    9.06725
  210   365    6.01521    9.21132    9.03280
