Sine Test Results
Object:
DAMPER
Task File:
C:\VIBRO\SINE_T\TASK\DX_6G.ST

Spertrum - g, ampl - g, phase - rad

  210 - point number
1 Hz - frequency band
  n   Fr[Hz]   3ch Sin    4ch Sin 
    1   151    5.98964    8.75407
    2   152    6.01716    8.87737
    3   153    6.04425    8.97791
    4   154    6.01629    9.00811
    5   155    6.00842    9.07996
    6   156    5.96215    9.07503
    7   157    5.98826    9.18796
    8   158    5.99797    9.29694
    9   159    5.97416    9.34373
   10   160    6.00881    9.47657
   11   161    6.00603    9.58402
   12   162    6.04573    9.73183
   13   163    5.98947    9.74281
   14   164    6.00920    9.89210
   15   165    6.03016   10.04459
   16   166    6.01327   10.09129
   17   167    5.99625   10.17614
   18   168    5.99904   10.30316
   19   169    6.00481   10.39018
   20   170    5.97042   10.45344
   21   171    6.01123   10.66757
   22   172    6.00804   10.80202
   23   173    5.96604   10.85506
   24   174    5.98720   11.01561
   25   175    6.02394   11.22968
   26   176    6.05830   11.41434
   27   177    5.98979   11.45339
   28   178    6.00935   11.64972
   29   179    5.99102   11.81305
   30   180    5.99178   12.00151
   31   181    6.02074   12.20047
   32   182    6.01155   12.38178
   33   183    6.00862   12.60572
   34   184    6.03139   12.83663
   35   185    5.96721   13.00395
   36   186    5.99218   13.27767
   37   187    6.01666   13.60853
   38   188    5.96293   13.76095
   39   189    5.98418   14.11497
   40   190    5.99347   14.40255
   41   191    5.99491   14.78505
   42   192    6.00428   15.17994
   43   193    6.00603   15.48750
   44   194    6.02129   15.93259
   45   195    5.99350   16.38556
   46   196    5.97547   16.92253
   47   197    6.01949   17.36794
   48   198    5.96382   18.11621
   49   199    5.98187   18.67994
   50   200    6.01920   19.52736
   51   201    6.00871   20.46541
   52   202    6.00105   21.63762
   53   203    6.00809   22.42413
   54   204    5.99607   23.93999
   55   205    5.96927   25.83496
   56   206    5.99591   28.38323
   57   207    6.03656   30.56700
   58   208    5.94980   34.29228
   59   209    6.02902   34.68349
   60   210    5.98934   34.87481
   61   211    6.02107   35.05579
   62   212    6.00020   35.09110
   63   213    6.11009   33.76360
   64   214    6.02235   33.34575
   65   215    5.99608   33.15542
   66   216    6.00439   32.90356
   67   217    5.97834   32.55482
   68   218    5.98905   32.17669
   69   219    5.94741   31.75209
   70   220    6.00115   30.77969
   71   221    5.99830   30.23821
   72   222    5.96546   29.74094
   73   223    6.01621   29.25901
   74   224    5.98217   28.65487
   75   225    5.99005   28.11831
   76   226    6.02241   27.55525
   77   227    6.01691   26.95535
   78   228    5.98686   26.18076
   79   229    5.99370   25.61966
   80   230    6.00203   25.03250
   81   231    5.97708   24.35137
   82   232    5.93492   23.75106
   83   233    6.00287   23.44349
   84   234    6.02296   22.93325
   85   235    5.98947   22.28802
   86   236    5.98217   21.78040
   87   237    6.10563   21.90857
   88   238    6.06974   21.26858
   89   239    6.01080   20.65954
   90   240    5.99052   20.06297
   91   241    6.02382   19.72163
   92   242    6.00845   19.22095
   93   243    5.95781   18.71108
   94   244    6.05129   18.89233
   95   245    5.97504   17.93100
   96   246    5.96382   17.43181
   97   247    5.99399   17.54562
   98   248    5.99803   17.17505
   99   249    5.97144   16.76808
  100   250    6.02287   16.56081
  101   251    5.98353   16.15069
  102   252    6.00320   15.80820
  103   253    5.99775   15.50648
  104   254    6.00841   15.61417
  105   255    6.00232   15.28966
  106   256    6.02521   15.05910
  107   257    5.98095   14.60094
  108   258    5.97664   14.73701
  109   259    6.02841   14.14742
  110   260    5.98082   14.23875
  111   261    6.00244   13.94691
  112   262    6.00199   13.74422
  113   263    5.99544   13.34602
  114   264    6.00148   13.23613
  115   265    5.98378   13.02811
  116   266    6.04002   12.70642
  117   267    5.98629   12.58403
  118   268    5.97751   12.30888
  119   269    6.00944   11.96052
  120   270    5.98411   11.96595
  121   271    5.98560   11.77841
  122   272    5.99471   11.54589
  123   273    6.02135   11.42216
  124   274    6.01655   11.17011
  125   275    6.04813   11.04334
  126   276    5.98227   10.89242
  127   277    6.01949   10.75739
  128   278    5.95360   10.57525
  129   279    5.96885   10.45132
  130   280    5.98629   10.25070
  131   281    5.99735   10.10293
  132   282    5.99658    9.92379
  133   283    5.94930    9.78936
  134   284    5.95818    9.68525
  135   285    5.98516    9.50544
  136   286    5.98602    9.34071
  137   287    5.99945    9.21410
  138   288    6.02802    9.13056
  139   289    5.96273    8.99045
  140   290    5.97828    8.86970
  141   291    5.98335    8.66958
  142   292    5.99102    8.54967
  143   293    6.02102    8.48944
  144   294    5.92543    8.33056
  145   295    6.06110    8.24996
  146   296    6.01245    8.15313
  147   297    5.99187    7.98714
  148   298    6.02263    7.93589
  149   299    5.99921    7.76194
  150   300    5.95620    7.65959
  151   301    5.97873    7.57199
  152   302    6.00702    7.48248
  153   303    6.00594    7.38600
  154   304    5.89780    7.20411
  155   305    6.03224    7.20946
  156   306    6.09099    7.14863
  157   307    5.98691    6.98156
  158   308    6.01031    6.91835
  159   309    5.89089    6.73750
  160   310    5.89640    6.63818
  161   311    6.01635    6.64229
  162   312    6.08280    6.58249
  163   313    5.98898    6.43714
  164   314    6.02100    6.40092
  165   315    6.01998    6.32185
  166   316    6.01124    6.20434
  167   317    5.92198    6.09386
  168   318    5.99670    6.07250
  169   319    6.01817    5.99163
  170   320    6.00474    5.89561
  171   321    5.99493    5.80385
  172   322    5.89226    5.69104
  173   323    5.88932    5.61709
  174   324    5.94959    5.54531
  175   325    5.99879    5.53250
  176   326    6.00177    5.48290
  177   327    5.99203    5.39728
  178   328    6.00737    5.36121
  179   329    5.99452    5.26153
  180   330    5.90853    5.14155
  181   331    6.08362    5.19181
  182   332    6.01218    5.10028
  183   333    6.12090    5.10859
  184   334    6.03048    4.98705
  185   335    5.87040    4.81699
  186   336    6.03336    4.86496
  187   337    6.02875    4.79917
  188   338    5.98036    4.72987
  189   339    6.12205    4.73365
  190   340    5.98988    4.60387
  191   341    6.02144    4.57277
  192   342    5.85234    4.40590
  193   343    6.02813    4.46725
  194   344    5.90366    4.32623
  195   345    5.96732    4.31342
  196   346    5.97003    4.26581
  197   347    6.11665    4.28154
  198   348    5.98951    4.17331
  199   349    6.01514    4.14475
  200   350    5.87707    4.00828
  201   351    6.00412    4.02669
  202   352    6.08129    4.02329
  203   353    5.97509    3.92491
  204   354    5.99936    3.88178
  205   355    5.99951    3.83281
  206   356    6.02211    3.80660
  207   357    6.02752    3.77103
  208   358    6.03337    3.73176
  209   359    6.02801    3.65913
  210   360    5.96457    3.58904
