Sine Test Results
Object:
DAMPER
Task File:
C:\VIBRO\SINE_T\TASK\DX_3G.ST

Spertrum - g, ampl - g, phase - rad

  210 - point number
1 Hz - frequency band
  n   Fr[Hz]   1ch Sin    2ch Sin    4ch Sin 
    1   191    2.99751    4.40473    4.41880
    2   192    2.99764    4.42778    4.44057
    3   193    2.99592    4.45201    4.46314
    4   194    3.00617    4.48190    4.49090
    5   195    3.00361    4.50824    4.51819
    6   196    2.99831    4.53411    4.53661
    7   197    2.99722    4.54424    4.55216
    8   198    3.00615    4.60214    4.60085
    9   199    3.00444    4.61331    4.61536
   10   200    2.99219    4.62019    4.61878
   11   201    3.00731    4.67931    4.67605
   12   202    2.99726    4.69483    4.69079
   13   203    3.00122    4.72793    4.72196
   14   204    3.00277    4.75427    4.74454
   15   205    3.00697    4.79116    4.77923
   16   206    2.99791    4.81440    4.79791
   17   207    3.00005    4.85867    4.84617
   18   208    3.00235    4.89380    4.87377
   19   209    2.99748    4.92236    4.89757
   20   210    2.99769    4.95481    4.92562
   21   211    3.00021    5.00210    4.97013
   22   212    3.00368    5.04751    5.01339
   23   213    3.00562    5.09477    5.05859
   24   214    3.00470    5.13886    5.09358
   25   215    3.01514    5.17363    5.12163
   26   216    2.99578    5.18313    5.12209
   27   217    2.99929    5.24040    5.17355
   28   218    2.98397    5.23958    5.16433
   29   219    3.00087    5.32870    5.23396
   30   220    3.00805    5.39118    5.29139
   31   221    3.00646    5.43164    5.32205
   32   222    3.00265    5.48410    5.35560
   33   223    2.99369    5.52248    5.38519
   34   224    3.00993    5.60944    5.46183
   35   225    3.00806    5.66997    5.50436
   36   226    3.00715    5.68947    5.51412
   37   227    3.00430    5.74956    5.56467
   38   228    3.00550    5.80839    5.61153
   39   229    3.00138    5.86648    5.67463
   40   230    3.00496    5.92515    5.73206
   41   231    2.99793    5.98074    5.78801
   42   232    2.98893    5.97815    5.79050
   43   233    3.00248    6.05713    5.87731
   44   234    3.00214    6.12031    5.95025
   45   235    3.01560    6.20979    6.03932
   46   236    3.01183    6.27297    6.08818
   47   237    3.01461    6.35605    6.17646
   48   238    3.01563    6.43373    6.24880
   49   239    3.00583    6.45094    6.28536
   50   240    2.99487    6.52071    6.32443
   51   241    2.99488    6.60639    6.40710
   52   242    3.00377    6.71922    6.50325
   53   243    3.00713    6.82927    6.59790
   54   244    2.99646    6.89136    6.64090
   55   245    3.00484    7.04261    6.75880
   56   246    2.99791    7.13182    6.82496
   57   247    3.00858    7.28870    6.94228
   58   248    3.00461    7.41680    7.03147
   59   249    3.00809    7.60589    7.17631
   60   250    3.01437    7.77941    7.30611
   61   251    3.00210    7.92963    7.39604
   62   252    3.01564    8.15671    7.55067
   63   253    2.97527    8.16566    7.52499
   64   254    3.00889    8.50358    7.77895
   65   255    3.00425    8.71304    7.91514
   66   256    3.00673    8.94528    8.10093
   67   257    2.99280    9.08362    8.20610
   68   258    3.01541    9.26196    8.43028
   69   259    2.97269    8.98252    8.29568
   70   260    2.99972    8.99400    8.47231
   71   261    2.99569    9.00539    8.62414
   72   262    2.99352    8.95347    8.72702
   73   263    2.99729    9.00851    8.90598
   74   264    3.00228    9.06021    9.07462
   75   265    3.00914    9.21267    9.30291
   76   266    3.01621    9.35264    9.54666
   77   267    3.00130    9.34529    9.63016
   78   268    3.03107    9.71773   10.06097
   79   269    2.98355    9.58608    9.99736
   80   270    2.99960    9.87338   10.35251
   81   271    3.00263   10.17062   10.71396
   82   272    3.00322   10.45355   11.04373
   83   273    3.00177   10.70504   11.35077
   84   274    3.00808   11.11118   11.80665
   85   275    3.02505   11.60079   12.37471
   86   276    3.00940   11.96157   12.77740
   87   277    3.01070   12.52423   13.38638
   88   278    3.00047   12.99094   13.89964
   89   279    2.98384   13.63121   14.57304
   90   280    2.99631   14.53572   15.52252
   91   281    2.99174   15.33484   16.36367
   92   282    2.99453   16.12815   17.19979
   93   283    3.00700   16.75112   17.84715
   94   284    3.02145   17.42542   18.53008
   95   285    3.00143   17.68269   18.76903
   96   286    2.99685   17.90560   19.00632
   97   287    3.00904   18.15150   19.25453
   98   288    2.98592   18.26835   19.34601
   99   289    3.01845   18.33732   19.41336
  100   290    2.99271   18.37070   19.41278
  101   291    3.03401   18.29609   19.34012
  102   292    2.98774   18.37417   19.39582
  103   293    3.00458   18.13401   19.15438
  104   294    3.00805   18.02132   19.02185
  105   295    2.99885   18.03100   19.01343
  106   296    2.99048   17.86757   18.84540
  107   297    2.99255   17.66862   18.62565
  108   298    3.01591   17.49792   18.43409
  109   299    3.02099   17.33795   18.25883
  110   300    2.99433   17.35255   18.25489
  111   301    3.00045   17.17217   18.07676
  112   302    3.00418   16.91609   17.79593
  113   303    3.01011   16.67069   17.52023
  114   304    2.98739   16.77094   17.62183
  115   305    3.01994   16.18286   17.00081
  116   306    3.02614   15.98612   16.79593
  117   307    2.99247   15.97849   16.78828
  118   308    3.00513   15.79478   16.58539
  119   309    3.00266   15.47732   16.26815
  120   310    3.00283   15.24335   16.02133
  121   311    3.01590   15.04421   15.81161
  122   312    2.97923   15.04439   15.82638
  123   313    3.00087   14.88816   15.66991
  124   314    2.99707   14.60454   15.37248
  125   315    2.99958   14.39026   15.14102
  126   316    2.97084   14.47460   15.23032
  127   317    3.01367   13.95815   14.68117
  128   318    3.03930   13.80785   14.51507
  129   319    3.00755   13.87162   14.58735
  130   320    2.98891   13.58021   14.26586
  131   321    3.02587   13.47071   14.14811
  132   322    3.01806   13.21950   13.88449
  133   323    3.01151   12.99094   13.64121
  134   324    3.05020   12.88698   13.52225
  135   325    3.06427   12.71103   13.34224
  136   326    3.05093   12.46032   13.07204
  137   327    3.01842   12.48039   13.09638
  138   328    2.95817   12.46159   13.07941
  139   329    2.94252   12.21351   12.80704
  140   330    2.96671   12.07635   12.67391
  141   331    3.04571   11.85471   12.42352
  142   332    2.99076   11.79522   12.35672
  143   333    3.01608   11.66531   12.21388
  144   334    3.01478   11.52191   12.06190
  145   335    2.93989   11.38249   11.92531
  146   336    3.00832   11.12924   11.64766
  147   337    3.04206   11.08080   11.58653
  148   338    2.99745   11.02554   11.53344
  149   339    3.00175   10.85504   11.35466
  150   340    3.01265   10.73719   11.23459
  151   341    3.00790   10.57967   11.05840
  152   342    2.94398   10.46714   10.92421
  153   343    3.01186   10.29388   10.74004
  154   344    2.97515   10.25607   10.70308
  155   345    2.99852   10.16161   10.60731
  156   346    3.00572   10.05469   10.49507
  157   347    3.01242    9.92612   10.34810
  158   348    3.00932    9.79965   10.22535
  159   349    3.01817    9.71467   10.13861
  160   350    2.94648    9.57151    9.97782
  161   351    3.00500    9.45316    9.85729
  162   352    2.98651    9.37366    9.77118
  163   353    2.98124    9.23081    9.62141
  164   354    3.01970    9.22889    9.62482
  165   355    3.01267    9.09648    9.48025
  166   356    3.01685    9.01731    9.39008
  167   357    3.01017    8.87590    9.25623
  168   358    3.01937    8.82988    9.19851
  169   359    2.95965    8.66812    9.02774
  170   360    3.04753    8.66285    9.02200
  171   361    2.99814    8.51911    8.87501
  172   362    3.06796    8.51089    8.85419
  173   363    3.02071    8.37014    8.72550
  174   364    3.01369    8.31342    8.66356
  175   365    3.01304    8.19945    8.54242
  176   366    3.00707    8.08729    8.42794
  177   367    2.94608    7.92076    8.24399
  178   368    2.99175    7.90864    8.24116
  179   369    2.98261    7.78471    8.11242
  180   370    2.99984    7.78072    8.09693
  181   371    2.98715    7.66631    7.97299
  182   372    2.99877    7.61310    7.92257
  183   373    3.01579    7.55761    7.86194
  184   374    3.02352    7.49261    7.78799
  185   375    2.94838    7.29929    7.59258
  186   376    2.97202    7.26984    7.55148
  187   377    3.05740    7.34182    7.61881
  188   378    2.99172    7.15405    7.42465
  189   379    3.00359    7.11844    7.39057
  190   380    2.99088    7.02290    7.29123
  191   381    3.00928    6.98508    7.24762
  192   382    2.95098    6.79831    7.07446
  193   383    2.94883    6.76220    7.03561
  194   384    2.94893    6.68589    6.95338
  195   385    3.03542    6.79786    7.06524
  196   386    3.00772    6.67413    6.93784
  197   387    3.00032    6.55856    6.81081
  198   388    2.99671    6.49136    6.75232
  199   389    2.98739    6.42880    6.67261
  200   390    3.01141    6.43414    6.67529
  201   391    2.92845    6.21202    6.43644
  202   392    2.94631    6.21348    6.44126
  203   393    3.01254    6.24470    6.46461
  204   394    3.02238    6.24884    6.44973
  205   395    2.98815    6.08973    6.28089
  206   396    2.99981    6.06207    6.23306
  207   397    2.99667    5.99130    6.15026
  208   398    3.06613    6.10240    6.25233
  209   399    3.00482    5.91114    6.03608
  210   400    0.05816    0.21372    0.22352
